File: Fig4.txt
Adsorption
Relative Pressure, Sample V (mmol/g), Sample C (mmol/g)

0.00814, 1.03534, 1.13188
0.0181, 1.18767, 1.29377
0.0234, 1.23666, 1.34121
0.0282, 1.27782, 1.39333
0.0395, 1.35272, 1.45768
0.049, 1.4031, 1.51859
0.0596, 1.45158, 1.56965
0.0696, 1.49164, 1.61028
0.0734, 1.50438, 1.62858
0.0796, 1.52849, 1.65484
0.0907, 1.56601, 1.68833
0.1, 1.59376, 1.7252
0.15, 1.72938, 1.87145
0.2, 1.84673, 2.00376
0.249, 1.96152, 2.12963
0.3, 2.07709, 2.26069
0.35, 2.20084, 2.39466
0.4, 2.33265, 2.5408
0.45, 2.47879, 2.70712
0.5, 2.64589, 2.90094
0.551, 2.85574, 3.12657
0.6, 3.11794, 3.42193
0.649, 3.47372, 3.8143
0.7, 4.00143, 4.38415
0.75, 4.87351, 5.27491
0.799, 5.96897, 6.25434
0.851, 6.27377, 6.35027
0.9, 6.2933, 6.37384
0.926, 6.30229, 6.39284
0.95, 6.31023, 6.46328
0.96, 6.32044, 6.48502
0.971, 6.32311, 6.48593
0.981, 6.3259, 6.48674
0.999, 6.34429, 6.49105

Desorption
Relative Pressure, Sample V (mmol/g), Sample C (mmol/g)

0.999, 6.34429, 6.49105
0.951, 6.30076, 6.48342
0.954, 6.30037, 6.48182
0.947, 6.3017, 6.47986
0.923, 6.29942, 6.47138
0.898, 6.29385, 6.43635
0.85, 6.28296, 6.37326
0.799, 6.27342, 6.33936
0.75, 6.25609, 6.30594
0.696, 6.23558, 6.27298
0.65, 6.21869, 6.23099
0.601, 3.71863, 3.71869
0.551, 3.07695, 3.1858
0.501, 2.66613, 2.90683
0.449, 2.47197, 2.70973
0.399, 2.31869, 2.54182
0.35, 2.19045, 2.39252
0.299, 2.07065, 2.26334
0.25, 1.96221, 2.13847
0.2, 1.85152, 2.01433
0.151, 1.73678, 1.88655
0.1, 1.60305, 1.74278
0.0506, 1.42811, 1.55305
0.0259, 1.28539, 1.39926