File: Fig6.csv
Sample V (Adsorption),,,,,,,,,Sample V (Desorption),,,,,,,,,Sample C (Adsorption),,,,,,,,,Sample C (Desorption),,,,,,,
Nominal Values,,,,,,,,,Nominal Values,,,,,,,,,Nominal Values,,,,,,,,,Nominal Values,,,,,,,
Relative Pressure,Mass (kg),Relative Adsorption (g_w / g),P_Speed (m/s),S_Speed (m/s),Longitudinal Modulus (GPa),Shear Modulus (GPa),Bulk Modulus (GPa),,Relative Pressure,Mass (kg),Relative Adsorption (g_w / g),P_Speed (m/s),S_Speed (m/s),Longitudinal Modulus (GPa),Shear Modulus (GPa),Bulk Modulus (GPa),,Relative Pressure,Mass (kg),Relative Adsorption (g_w / g),P_Speed (m/s),S_Speed (m/s),Longitudinal Modulus (GPa),Shear Modulus (GPa),Bulk Modulus (GPa),,Relative Pressure,Mass (kg),Relative Adsorption (g_w / g),P_Speed (m/s),S_Speed (m/s),Longitudinal Modulus (GPa),Shear Modulus (GPa),Bulk Modulus (GPa)
0,0.001136,0,,,,,,,0.98,0.001402,0.2338,3372.42,1916.15,19.8226,6.39932,11.2902,,0,0.001616,0,,,,,,,0.98,0.002008,0.2427,3303.57,1890.59,20.3531,6.66593,11.4652
0.12,0.001181,0.0396,3404.96,2100.74,17.026,6.47921,8.38141,,0.93,0.001396,0.2285,3370.63,1916.72,19.7154,6.37533,11.215,,0.12,0.001668,0.0321,3294.97,2057.03,16.8165,6.55412,8.07764,,0.93,0.002001,0.2382,3298.65,1892.19,20.2198,6.65327,11.3488
0.3,0.001194,0.0508,3408.61,2100.04,17.246,6.5462,8.51641,,0.88,0.001393,0.2258,3353.19,1917.53,19.47,6.36701,10.9806,,0.3,0.001689,0.0451,3293.74,,17.0155,,,,0.88,0.001995,0.2346,3281.55,1894.7,19.9527,6.65155,11.0839
0.45,0.001205,0.0609,3399.75,2091.74,17.3217,6.55438,8.57133,,0.86,0.001392,0.225,3345.77,1918.46,19.3714,6.36905,10.8793,,0.45,0.00171,0.0581,3281.55,2051.37,17.0997,6.68222,8.19007,,0.86,0.001992,0.2323,3279.93,1894.7,19.895,6.63889,11.0431
0.53,0.00121,0.0653,3390.41,2084.87,17.2981,6.53843,8.57175,,0.84,0.001398,0.2301,3340.49,1918.46,19.3907,6.39558,10.8633,,0.53,0.001719,0.0637,3270.99,,17.0793,,,,0.84,0.001987,0.2297,3277.9,1888.6,19.8286,6.58232,11.0521
0.58,0.001218,0.0723,3390.41,2074.52,17.4124,6.51915,8.72024,,0.81,0.001385,0.2189,3340.49,1918.46,19.2132,6.33702,10.7638,,0.58,0.001729,0.0699,3262.21,,17.0866,,,,0.81,0.001984,0.2276,3275.48,1889.4,19.7664,6.57695,10.9971
0.75,0.001259,0.1078,3335.21,2041.84,17.4073,6.52422,8.70834,,0.77,0.001378,0.2124,3336.98,1919.62,19.0703,6.31078,10.656,,0.75,0.001788,0.1064,3198.62,2004.95,16.9884,6.67477,8.08866,,0.77,0.001977,0.2231,3270.64,1895.5,19.6355,6.59513,10.842
0.77,0.001267,0.115,3317.06,2027.76,17.3306,6.4765,8.69524,,0.75,0.001377,0.2121,3293.71,1928.76,18.5749,6.3696,10.0821,,0.77,0.001808,0.1187,3171.14,,16.8836,,,,0.75,0.001958,0.2119,3262.21,1895,19.3546,6.53097,10.6466
0.81,0.001307,0.1502,3258.2,1992.5,17.2488,6.45064,8.64799,,0.58,0.001223,0.0767,3436.29,2062.4,17.9603,6.46961,9.33412,,0.81,0.001867,0.1553,3164.54,,17.3621,,,,0.58,0.001733,0.0724,3275.48,2037.36,17.2667,6.68031,8.35961
0.84,0.00132,0.1616,3238.88,1979.61,17.2131,6.43029,8.63939,,0.53,0.001219,0.0728,3390.41,2075.2,17.4196,6.5261,8.71813,,0.84,0.001887,0.1679,3104.47,1975.74,16.8926,6.84199,7.76998,,0.53,0.001731,0.0711,3290.08,,17.3998,,
0.86,0.001356,0.1933,3220.74,1967.09,17.4864,6.52287,8.78923,,0.45,0.001205,0.0602,3399.75,2079.92,17.3102,6.48052,9.57491,,0.86,0.00191,0.1819,3087.16,,16.9039,,,,0.45,0.00171,0.0581,3302.34,,17.3171,,
0.88,0.001382,0.2166,3192.68,1927.67,17.5176,6.38595,9.003,,0.3,0.001194,0.0508,3408.61,2086.11,17.246,6.45964,8.63317,,0.88,0.001975,0.2221,3130.81,1898.22,17.9769,6.60837,9.16576,,0.3,0.00169,0.0457,3320.02,,17.2983,,
0.93,0.001404,0.2356,3370.63,1916.72,19.8298,6.41232,11.2801,,0.12,0.001183,0.0407,3406.79,2102.82,17.063,6.50308,8.3967,,0.93,0.002,0.2377,3298.65,,20.2117,,,,0.12,0.001673,0.0351,3323.4,2057.03,17.1581,6.57337,8.39365
0.98,0.001402,0.2338,3372.42,1916.15,19.8226,6.39932,11.2902,,,,,,,,,,,0.98,0.002008,0.2427,3303.57,1890.59,20.3531,6.66593,11.4652,,,,,,,,,
,,,,,,,,,,,,,,,,,,,,,,,,,,,,,,,,,,
Uncertainty (1 stdev),,,,,,,,,Uncertainty (1 stdev),,,,,,,,,Uncertainty (1 stdev),,,,,,,,,Uncertainty (1 stdev),,,,,,,
Relative Pressure,Mass (kg),Relative Adsorption (g_w / g),P_Speed (m/s),S_Speed (m/s),Longitudinal Modulus (GPa),Shear Modulus (GPa),Bulk Modulus (GPa),,Relative Pressure,Mass (kg),Relative Adsorption (g_w / g),P_Speed (m/s),S_Speed (m/s),Longitudinal Modulus (GPa),Shear Modulus (GPa),Bulk Modulus (GPa),,Relative Pressure,Mass (kg),Relative Adsorption (g_w / g),P_Speed (m/s),S_Speed (m/s),Longitudinal Modulus (GPa),Shear Modulus (GPa),Bulk Modulus (GPa),,Relative Pressure,Mass (kg),Relative Adsorption (g_w / g),P_Speed (m/s),S_Speed (m/s),Longitudinal Modulus (GPa),Shear Modulus (GPa),Bulk Modulus (GPa)
0,1.50E-07,0.0009,,,,,,,0,1.50E-07,0.0011,0,0,0.0629551,0.02032374,0.0358567,,0,1.50E-07,0.0006,,,,,,,0,1.50E-07,0.0008,0.000320513,2.18E-05,0.0657132,0.0289889,0.0270614
0,1.50E-07,0.0009,0,0.205715,0.0540858,0.0203422,0.0270672,,0,1.50E-07,0.0011,4.55E-13,0,0.0626149,0.0202476,0.0356181,,0,1.50E-07,0.0006,7.90E-05,3.08E-05,0.0543011,0.0257478,0.0199706,,0,1.50E-07,0.0008,0.000283572,0,0.0652829,0.0289136,0.0267314
0,1.50E-07,0.0009,0,6.86E-05,0.0547838,0.0205332,0.0274062,,0,1.50E-07,0.0011,0.708526,0.283717,0.0623805,0.0203088,0.0359193,,0,1.50E-07,0.0007,4.55E-13,,0.0549433,,,,0,1.50E-07,0.0008,0,0.212891,0.0644205,0.0282522,0.0269172
0,1.50E-07,0.0009,0.637287,0,0.0554052,0.0206221,0.0282828,,0,1.50E-07,0.0011,4.55E-13,3.38E-05,0.06152237,0.0202277,0.034552,,0,1.50E-07,0.0007,0,0,0.0552146,0.0261807,0.020307,,0,1.50E-07,0.0008,0.572324,0.249253,0.0646085,0.0280456,0.0279425
0,1.50E-07,0.0009,4.55E-13,6.59E-05,0.0549481,0.0205858,0.0275003,,0,1.50E-07,0.0011,0.000162893,3.45E-05,0.0615836,0.0203119,0.034501,,0,1.50E-07,0.0007,0.545635,,0.055442,,,,0,1.50E-07,0.0008,0,0.373942,0.0640199,0.0280795,0.0270877
0,1.50E-07,0.001,0.000289454,0,0.0553107,0.0207081,0.0276999,,0,1.50E-07,0.0011,0.000159601,2.27E-13,0.0610203,0.0201261,0.0341854,,0,1.50E-07,0.0007,0,,0.0551718,,,,0,1.50E-07,0.0008,8.46E-05,0.471969,0.0638192,0.0279663,0.0273304
0,1.50E-07,0.001,0.000276836,2.27733,0.05529175,0.0253229,0.0337883,,0,1.50E-07,0.0011,0.000129947,2.27E-13,0.0605671,0.020043,0.0338432,,0,1.50E-07,0.0007,0,0,0.05485339,0.026005,0.0201801,,0,1.50E-07,0.0008,0,0.228359,0.0633969,0.0277391,0.0266004
0,1.50E-07,0.001,1.93406,1.19727,0.0586401,0.0219471,0.0357102,,0,1.50E-07,0.0011,0.000156302,0.276145,0.05899367,0.0203118,0.0321129,,0,1.50E-07,0.0007,0,,0.0545147,,,,0,1.50E-07,0.0008,0,0.228201,0.0624901,0.0274704,0.0260511
0,1.50E-07,0.001,0.000685547,3.39E-05,0.0547856,0.0204885,0.0274677,,0,1.50E-07,0.001,0,4.22E-05,0.0570505,0.0205506,0.0296497,,0,1.50E-07,0.0007,0.421399,,0.0562488,,,,0,1.50E-07,0.0007,8.44E-05,0.213654,0.0557533,0.0264425,0.0206609
0,1.50E-07,0.001,0.800059,0.267277,0.0553289,0.0204973,0.0288207,,0,1.50E-07,0.001,4.55E-13,6.59E-05,0.0553334,0.0207302,0.0276931,,0,1.50E-07,0.0007,0,3.57E-05,0.0545424,0.0258077,0.0201322,,0,1.50E-07,0.0007,0,,0.0561832,,
0,1.50E-07,0.0011,2.0381,1.02079,0.0597846,0.021795,0.0367492,,0,1.50E-07,0.0009,0.637287,0,0.0553684,0.0206084,0.0282641,,0,1.50E-07,0.0007,4.55E-13,,0.0545785,,,,0,1.50E-07,0.0007,7.94E-05,,0.0559166,,
0,1.50E-07,0.0011,0.000181465,1.75284,0.0556354,0.0233713,0.03251697,,0,1.50E-07,0.0009,0,8.27E-05,0.0547838,0.0205197,0.02742415,,0,1.50E-07,0.0008,0.000113841,4.98E-05,0.0580418,0.026617,0.0225524,,0,1.50E-07,0.0007,0.56215,,0.0561627,,
0,1.50E-07,0.0011,9.09E-13,3.41E-05,0.0629779,0.020365,0.0358245,,0,1.50E-07,0.0009,0,4.34E-05,0.0542033,0.0203375,0.0270867,,0,1.50E-07,0.0008,0.000204582,,0.0652568,,,,0,1.50E-07,0.0006,0,2.96E-05,0.0554043,0.0261978,0.0204739
0,1.50E-07,0.0011,0,0,0.0629551,0.02032374,0.0358567,,,,,,,,,,,0,1.50E-07,0.0008,0.000320513,2.18E-05,0.0657132,0.0289889,0.0270614,,,,,,,,,
,,,,,,,,,,,,,,,,,,,,,,,,,,,,,,,,,,
,,,,,,,,,Sample V (Desorption),,,,,,,,,Sample C (Adsorption),,,,,,,,,Sample C (Desorption),,,,,,,
,,,,,,,,,Nominal Values,,,,,,,,,Nominal Values,,,,,,,,,Nominal Values,,,,,,,
,,,,,,,,,Relative Pressure,Mass (kg),Relative Adsorption (g_w / g),P_Speed (m/s),S_Speed (m/s),Longitudinal Modulus (GPa),Shear Modulus (GPa),Bulk Modulus (GPa),,Relative Pressure,Mass (kg),Relative Adsorption (g_w / g),P_Speed (m/s),S_Speed (m/s),Longitudinal Modulus (GPa),Shear Modulus (GPa),Bulk Modulus (GPa),,Relative Pressure,Mass (kg),Relative Adsorption (g_w / g),P_Speed (m/s),S_Speed (m/s),Longitudinal Modulus (GPa),Shear Modulus (GPa),Bulk Modulus (GPa)
,,,,,,,,,0.99,0.001402,0.2338,3372.42,1916.15,19.8226,6.39932,11.2902,,0.12,0.001668,0.0321,3294.97,2057.03,16.8165,6.55412,8.07764,,0.98,0.002008,0.2427,3303.57,1890.59,20.3531,6.66593,11.4652
,,,,,,,,,0.93,0.001396,0.2285,3370.63,1916.72,19.7154,6.37533,11.215,,0.45,0.00171,0.0581,3281.55,2051.37,17.0997,6.68222,8.19007,,0.93,0.002001,0.2382,3298.65,1892.19,20.2198,6.65327,11.3488
,,,,,,,,,0.88,0.001393,0.2258,3353.19,1917.53,19.47,6.36701,10.9806,,0.75,0.001788,0.1064,3198.62,2004.95,16.9884,6.67477,8.08866,,0.88,0.001995,0.2346,3281.55,1894.7,19.9527,6.65155,11.0839
,,,,,,,,,0.86,0.001392,0.225,3345.77,1918.46,19.3714,6.36905,10.8793,,0.84,0.001887,0.1679,3104.47,1975.74,16.8926,6.84199,7.76998,,0.86,0.001992,0.2323,3279.93,1894.7,19.895,6.63889,11.0431
,,,,,,,,,0.84,0.001398,0.2301,3340.49,1918.46,19.3907,6.39558,10.8633,,0.88,0.001975,0.2221,3130.81,1898.22,17.9769,6.60837,9.16576,,0.84,0.001987,0.2297,3277.9,1888.6,19.8286,6.58232,11.0521
,,,,,,,,,0.81,0.001385,0.2189,3340.49,1918.46,19.2132,6.33702,10.7638,,0.98,0.002008,0.2427,3303.57,1890.59,20.3531,6.66593,11.4652,,0.81,0.001984,0.2276,3275.48,1889.4,19.7664,6.57695,10.9971
,,,,,,,,,0.77,0.001378,0.2124,3336.98,1919.62,19.0703,6.31078,10.656,,,,,,,,,,,0.77,0.001977,0.2231,3270.64,1895.5,19.6355,6.59513,10.842
,,,,,,,,,0.75,0.001377,0.2121,3293.71,1928.76,18.5749,6.3696,10.0821,,,,,,,,,,,0.75,0.001958,0.2119,3262.21,1895,19.3546,6.53097,10.6466
,,,,,,,,,0.58,0.001223,0.0767,3436.29,2062.4,17.9603,6.46961,9.33412,,,,,,,,,,,0.58,0.001733,0.0724,3275.48,2037.36,17.2667,6.68031,8.35961
,,,,,,,,,0.45,0.001205,0.0602,3399.75,2079.92,17.3102,6.48052,9.57491,,,,,,,,,,,0.12,0.001673,0.0351,3323.4,2057.03,17.1581,6.57337,8.39365
,,,,,,,,,0.12,0.001183,0.0407,3406.79,2102.82,17.063,6.50308,8.3967,,,,,,,,,,,,,,,,,,
,,,,,,,,,,,,,,,,,,Uncertainty (1 stdev),,,,,,,,,Uncertainty (1 stdev),,,,,,,
,,,,,,,,,Uncertainty (1 stdev),,,,,,,,,Relative Pressure,Mass (kg),Relative Adsorption (g_w / g),P_Speed (m/s),S_Speed (m/s),Longitudinal Modulus (GPa),Shear Modulus (GPa),Bulk Modulus (GPa),,Relative Pressure,Mass (kg),Relative Adsorption (g_w / g),P_Speed (m/s),S_Speed (m/s),Longitudinal Modulus (GPa),Shear Modulus (GPa),Bulk Modulus (GPa)
,,,,,,,,,Relative Pressure,Mass (kg),Relative Adsorption (g_w / g),P_Speed (m/s),S_Speed (m/s),Longitudinal Modulus (GPa),Shear Modulus (GPa),Bulk Modulus (GPa),,0,1.50E-07,0.0006,7.90E-05,3.08E-05,0.0543011,0.0257478,0.0199706,,0,1.50E-07,0.0008,0.000320513,2.18E-05,0.0657132,0.0289889,0.0270614
,,,,,,,,,0,1.50E-07,0.0011,0,0,0.0629551,0.02032374,0.0358567,,0,1.50E-07,0.0007,0,0,0.0552146,0.0261807,0.020307,,0,1.50E-07,0.0008,0.000283572,0,0.0652829,0.0289136,0.0267314
,,,,,,,,,0,1.50E-07,0.0011,4.55E-13,0,0.0626149,0.0202476,0.0356181,,0,1.50E-07,0.0007,0,0,0.05485339,0.026005,0.0201801,,0,1.50E-07,0.0008,0,0.212891,0.0644205,0.0282522,0.0269172
,,,,,,,,,0,1.50E-07,0.0011,0.708526,0.283717,0.0623805,0.0203088,0.0359193,,0,1.50E-07,0.0007,0,3.57E-05,0.0545424,0.0258077,0.0201322,,0,1.50E-07,0.0008,0.572324,0.249253,0.0646085,0.0280456,0.0279425
,,,,,,,,,0,1.50E-07,0.0011,4.55E-13,3.38E-05,0.06152237,0.0202277,0.034552,,0,1.50E-07,0.0008,0.000113841,4.98E-05,0.0580418,0.026617,0.0225524,,0,1.50E-07,0.0008,0,0.373942,0.0640199,0.0280795,0.0270877
,,,,,,,,,0,1.50E-07,0.0011,0.000162893,3.45E-05,0.0615836,0.0203119,0.034501,,0,1.50E-07,0.0008,0.000320513,2.18E-05,0.0657132,0.0289889,0.0270614,,0,1.50E-07,0.0008,8.46E-05,0.471969,0.0638192,0.0279663,0.0273304
,,,,,,,,,0,1.50E-07,0.0011,0.000159601,2.27E-13,0.0610203,0.0201261,0.0341854,,,,,,,,,,,0,1.50E-07,0.0008,0,0.228359,0.0633969,0.0277391,0.0266004
,,,,,,,,,0,1.50E-07,0.0011,0.000129947,2.27E-13,0.0605671,0.020043,0.0338432,,,,,,,,,,,0,1.50E-07,0.0008,0,0.228201,0.0624901,0.0274704,0.0260511
,,,,,,,,,0,1.50E-07,0.0011,0.000156302,0.276145,0.05899367,0.0203118,0.0321129,,,,,,,,,,,0,1.50E-07,0.0007,8.44E-05,0.213654,0.0557533,0.0264425,0.0206609
,,,,,,,,,0,1.50E-07,0.001,0,4.22E-05,0.0570505,0.0205506,0.0296497,,,,,,,,,,,0,1.50E-07,0.0006,0,2.96E-05,0.0554043,0.0261978,0.0204739
,,,,,,,,,0,1.50E-07,0.0009,0.637287,0,0.0553684,0.0206084,0.0282641,,,,,,,,,,,,,,,,,,
,,,,,,,,,0,1.50E-07,0.0009,0,4.34E-05,0.0542033,0.0203375,0.0270867,,,,,,,,,,,,,,,,,,