File: Fig7.csv
Amberg et al (1952),,,Markova et al (2000),
Adsorption,,,Adsorption,
Relative Pressure,Mass Adsorbed (g),,Relative Pressure,Mass Adsorbed (g)
0.0032,0.00477,,0.006324111,0.002020202
0.0231,0.0136,,0.026087,0.009343434
0.138,0.0291,,0.0600791,0.0171717
0.539,0.0628,,0.0988142,0.0217172
0.711,0.0984,,0.145455,0.0262626
0.768,0.1352,,0.200791,0.03030303
0.814,0.1918,,0.26087,0.0340909
0.84,0.2264,,0.336759,0.0388889
0.924,0.2442,,0.401581,0.0434343
0.98,0.2548,,0.4743083,0.0494949
,,,0.533597,0.05479798
Desorption,,,0.581818,0.0606061
Relative Pressure,Mass Adsorbed (g),,0.633992,0.06969697
0.84,0.2326,,0.673518,0.0787879
0.73,0.2208,,0.70751,0.0906566
0.676,0.096,,0.740711,0.106313
0.66,0.0858,,0.763636,0.121717
,,,0.781028,0.140657
,,,0.793676,0.160101
,,,0.803162,0.178788
,,,0.812648,0.19899
,,,0.823715,0.217172
,,,0.839526,0.229293
,,,0.865613,0.234343
,,,0.899605,0.237626