File: Fig8.csv
Sample V (Adsorption),,,Sample V (Desorption),,,Sample C (Adsorption),,,Sample C (Desorption),
Nominal Values,,,Nominal Values,,,Nominal Values,,,Nominal Values,
Relative Pressure,Bulk Modulus (GPa),,Relative Pressure,Bulk Modulus (GPa),,Relative Pressure,Bulk Modulus (GPa),,Relative Pressure,Bulk Modulus (GPa)
0,,,0.99,11.2902,,0,,,0.98,11.4652
0.12,8.50421,,0.93,11.215,,0.12,8.07764,,0.93,11.3488
0.3,8.62751,,0.88,10.9806,,0.3,,,0.88,11.0839
0.45,8.66573,,0.86,10.8793,,0.45,8.19007,,0.86,11.0431
0.53,8.65734,,0.84,10.8633,,0.53,,,0.84,11.0521
0.58,8.72024,,0.81,10.7638,,0.58,,,0.81,10.9971
0.75,8.70834,,0.77,10.656,,0.75,8.08866,,0.77,10.842
0.77,8.69524,,0.75,10.0821,,0.77,,,0.75,10.6466
0.81,8.64799,,0.58,9.33412,,0.81,,,0.58,8.35961
0.84,8.63939,,0.53,8.71813,,0.84,7.76998,,0.53,
0.86,8.78923,,0.45,8.65998,,0.86,,,0.45,
0.88,9.003,,0.3,8.63317,,0.88,9.16576,,0.3,
0.93,11.2801,,0.12,8.52681,,0.93,,,0.12,8.39365
0.99,11.2902,,,,,0.98,11.4652,,,
,,,,,,,,,,
Uncertainty (1 stdev),,,Uncertainty (1 stdev),,,Uncertainty (1 stdev),,,Uncertainty (1 stdev),
Relative Pressure,Bulk Modulus (GPa),,Relative Pressure,Bulk Modulus (GPa),,Relative Pressure,Bulk Modulus (GPa),,Relative Pressure,Bulk Modulus (GPa)
0,,,0,0.0358567,,0,,,0,0.0270614
0,0.0270672,,0,0.0356181,,0,0.0199706,,0,0.0267314
0,0.0274062,,0,0.0359193,,0,,,0,0.0269172
0,0.0282828,,0,0.034552,,0,0.020307,,0,0.0279425
0,0.0275003,,0,0.034501,,0,,,0,0.0270877
0,0.0276999,,0,0.0341854,,0,,,0,0.0273304
0,0.0337883,,0,0.0338432,,0,0.0201801,,0,0.0266004
0,0.0357102,,0,0.0321129,,0,,,0,0.0260511
0,0.0274677,,0,0.0296497,,0,,,0,0.0206609
0,0.0288207,,0,0.0276931,,0,0.0201322,,0,
0,0.0367492,,0,0.0282641,,0,,,0,
0,0.03251697,,0,0.02742415,,0,0.0225524,,0,
0,0.0358245,,0,0.0270867,,0,,,0,0.0204739
0,0.0358567,,,,,0,0.0270614,,,